        1490     1      0.0818279      1128.3101
   2-theta, deg      I(obs)
   1.000501          35.70
   1.013182          35.15
   1.025862          35.12
   1.038542          35.37
   1.051223          35.75
   1.063903          36.00
   1.076584          36.43
   1.089264          36.83
   1.101945          37.12
   1.114625          37.18
   1.127306          38.14
   1.139986          38.45
   1.152666          39.65
   1.165347          40.73
   1.178028          41.45
   1.190708          42.23
   1.203389          43.29
   1.216069          44.75
   1.228750          46.80
   1.241430          48.44
   1.254111          50.63
   1.266792          53.09
   1.279472          56.00
   1.292153          59.16
   1.304834          63.00
   1.317514          67.61
   1.330195          74.74
   1.342876          81.95
   1.355557          90.75
   1.368237         101.31
   1.380918         120.96
   1.393599         142.54
   1.406280         170.74
   1.418961         205.88
   1.431641         275.28
   1.444322         365.33
   1.457003         485.32
   1.469684         636.40
   1.482365         931.52
   1.495046        1402.24
   1.507727        1920.01
   1.520408        2572.85
   1.533089        3413.95
   1.545770        4469.66
   1.558451        5344.86
   1.571132        5926.81
   1.583813        6127.49
   1.596494        6052.28
   1.609175        5601.20
   1.621856        4906.65
   1.634537        4098.89
   1.647219        3034.39
   1.659900        2237.36
   1.672581        1613.73
   1.685262        1218.28
   1.697943         917.53
   1.710625         724.80
   1.723306         641.81
   1.735987         637.90
   1.748669         685.54
   1.761350         820.93
   1.774031         966.05
   1.786713        1162.17
   1.799394        1329.26
   1.812076        1519.84
   1.824757        1620.56
   1.837439        1616.77
   1.850120        1538.85
   1.862802        1351.30
   1.875483        1141.90
   1.888165         923.12
   1.900846         723.97
   1.913528         527.98
   1.926210         383.43
   1.938891         284.60
   1.951573         227.90
   1.964255         185.09
   1.976936         153.42
   1.989618         136.32
   2.002300         124.91
   2.014982         116.96
   2.027664         109.91
   2.040346         104.67
   2.053027         100.63
   2.065709          97.78
   2.078391          95.29
   2.091073          93.49
   2.103755          92.26
   2.116437          91.50
   2.129119          91.25
   2.141801          91.62
   2.154483          92.12
   2.167166          92.95
   2.179848          95.10
   2.192530          98.03
   2.205212         101.01
   2.217894         104.75
   2.230577         108.45
   2.243259         113.11
   2.255941         116.50
   2.268624         119.00
   2.281306         120.54
   2.293988         121.87
   2.306671         122.58
   2.319353         123.39
   2.332036         124.26
   2.344718         126.64
   2.357401         130.00
   2.370083         134.46
   2.382766         140.06
   2.395448         148.20
   2.408131         159.37
   2.420814         171.36
   2.433497         187.01
   2.446179         210.07
   2.458862         245.90
   2.471545         287.83
   2.484228         355.34
   2.496911         446.78
   2.509593         612.65
   2.522276         794.58
   2.534959        1007.63
   2.547642        1221.15
   2.560325        1486.29
   2.573008        1665.40
   2.585691        1782.30
   2.598375        1769.02
   2.611058        1668.48
   2.623741        1482.88
   2.636424        1264.27
   2.649107        1045.00
   2.661791         825.79
   2.674474         621.06
   2.687157         495.69
   2.699841         402.36
   2.712524         345.43
   2.725207         302.15
   2.737891         277.45
   2.750574         263.55
   2.763258         257.91
   2.775942         257.41
   2.788625         262.72
   2.801309         271.39
   2.813992         284.57
   2.826676         306.30
   2.839360         334.00
   2.852044         366.31
   2.864727         415.01
   2.877411         480.43
   2.890095         586.88
   2.902779         720.23
   2.915463         919.20
   2.928147        1203.68
   2.940831        1735.34
   2.953515        2322.73
   2.966199        3180.18
   2.978883        4194.94
   2.991568        5557.86
   3.004252        6733.74
   3.016936        7720.91
   3.029620        8292.36
   3.042305        8609.85
   3.054989        8345.60
   3.067673        7821.42
   3.080358        7117.24
   3.093042        6344.48
   3.105727        5729.65
   3.118411        5416.35
   3.131096        5400.09
   3.143781        5519.21
   3.156465        5722.99
   3.169150        5744.51
   3.181835        5551.92
   3.194519        5163.48
   3.207204        4441.07
   3.219889        3733.99
   3.232574        2973.45
   3.245259        2362.07
   3.257944        1744.33
   3.270629        1302.55
   3.283314        1009.76
   3.295999         840.05
   3.308684         697.79
   3.321369         601.94
   3.334055         545.73
   3.346740         506.83
   3.359425         484.10
   3.372110         470.82
   3.384796         466.75
   3.397481         471.43
   3.410167         482.74
   3.422852         503.74
   3.435538         532.67
   3.448223         570.48
   3.460909         620.96
   3.473595         706.06
   3.486280         814.64
   3.498966         954.26
   3.511652        1165.59
   3.524338        1490.74
   3.537024        1985.85
   3.549710        2654.34
   3.562396        3643.47
   3.575082        5077.34
   3.587768        7387.30
   3.600454        9940.86
   3.613140       13019.58
   3.625826       16167.88
   3.638512       19418.99
   3.651199       21436.05
   3.663885       22349.19
   3.676571       21831.03
   3.689258       20057.26
   3.701944       17217.88
   3.714631       14237.99
   3.727317       11180.56
   3.740004        8021.73
   3.752691        5679.92
   3.765377        4073.69
   3.778064        2980.08
   3.790751        2228.43
   3.803438        1667.91
   3.816124        1347.49
   3.828811        1144.83
   3.841498        1018.52
   3.854185         951.04
   3.866872         949.97
   3.879560        1001.69
   3.892247        1146.51
   3.904934        1391.36
   3.917621        1743.08
   3.930308        2172.91
   3.942996        2664.43
   3.955683        3246.15
   3.968371        3758.36
   3.981058        4078.57
   3.993746        4216.64
   4.006433        4131.22
   4.019121        3833.66
   4.031809        3431.59
   4.044496        2929.99
   4.057184        2430.76
   4.069872        1939.84
   4.082560        1599.97
   4.095248        1335.21
   4.107936        1141.49
   4.120624         968.39
   4.133312         846.01
   4.146000         744.36
   4.158688         660.58
   4.171377         587.35
   4.184065         535.06
   4.196753         500.93
   4.209442         478.64
   4.222130         463.97
   4.234819         457.44
   4.247507         456.47
   4.260196         460.12
   4.272884         470.05
   4.285573         486.58
   4.298262         509.30
   4.310951         542.92
   4.323640         595.12
   4.336329         676.66
   4.349018         789.78
   4.361707         942.29
   4.374396        1190.03
   4.387085        1579.84
   4.399774        2131.80
   4.412463        2801.93
   4.425153        3703.96
   4.437842        4844.06
   4.450531        6006.30
   4.463221        6897.62
   4.475910        7579.10
   4.488600        7850.26
   4.501289        7674.82
   4.513979        7092.25
   4.526669        6252.10
   4.539359        5162.28
   4.552049        4008.07
   4.564738        3081.08
   4.577428        2392.87
   4.590118        1885.90
   4.602808        1547.44
   4.615499        1380.12
   4.628189        1338.79
   4.640879        1422.53
   4.653569        1650.36
   4.666260        2031.59
   4.678950        2567.81
   4.691641        3295.33
   4.704331        4324.45
   4.717022        5392.82
   4.729712        6324.33
   4.742403        7096.85
   4.755094        7558.21
   4.767785        7597.56
   4.780476        7211.96
   4.793166        6538.74
   4.805857        5480.74
   4.818549        4369.62
   4.831240        3360.11
   4.843931        2628.64
   4.856622        1971.74
   4.869313        1507.82
   4.882005        1205.98
   4.894696        1017.00
   4.907388         888.49
   4.920079         804.00
   4.932771         752.02
   4.945462         732.30
   4.958154         731.35
   4.970846         752.72
   4.983538         793.23
   4.996230         858.30
   5.008922         948.31
   5.021614        1116.60
   5.034306        1335.75
   5.046998        1657.16
   5.059690        2105.23
   5.072382        2846.14
   5.085075        3931.65
   5.097767        5452.39
   5.110459        7287.81
   5.123152        9850.14
   5.135845       12884.99
   5.148537       15622.80
   5.161230       17872.21
   5.173923       19362.38
   5.186616       19746.36
   5.199308       19119.86
   5.212001       17279.18
   5.224694       15023.42
   5.237387       11773.81
   5.250081        9050.94
   5.262774        6676.33
   5.275467        4945.09
   5.288160        3478.76
   5.300854        2566.61
   5.313547        1930.16
   5.326241        1547.28
   5.338935        1268.05
   5.351628        1066.59
   5.364322         940.31
   5.377016         864.76
   5.389710         814.85
   5.402404         785.21
   5.415098         774.67
   5.427792         776.03
   5.440486         785.98
   5.453180         802.98
   5.465874         817.04
   5.478569         823.76
   5.491263         817.86
   5.503957         796.69
   5.516652         760.80
   5.529347         714.60
   5.542041         663.99
   5.554736         601.86
   5.567431         545.99
   5.580126         501.04
   5.592821         466.93
   5.605516         439.42
   5.618211         417.29
   5.630906         402.64
   5.643601         391.88
   5.656296         383.59
   5.668992         376.61
   5.681687         372.31
   5.694383         369.58
   5.707078         368.36
   5.719774         368.41
   5.732470         369.88
   5.745165         372.25
   5.757861         375.17
   5.770557         378.73
   5.783253         382.06
   5.795949         384.37
   5.808645         386.12
   5.821342         387.87
   5.834038         389.90
   5.846734         393.23
   5.859431         399.41
   5.872127         410.99
   5.884824         430.07
   5.897520         456.69
   5.910217         496.04
   5.922914         556.93
   5.935611         646.75
   5.948308         762.57
   5.961005         902.80
   5.973702        1096.25
   5.986399        1359.08
   5.999096        1675.93
   6.011794        2009.92
   6.024491        2413.64
   6.037188        2850.84
   6.049886        3223.15
   6.062583        3479.74
   6.075281        3578.56
   6.087979        3498.13
   6.100677        3270.28
   6.113375        2916.71
   6.126073        2514.90
   6.138771        2041.38
   6.151469        1611.78
   6.164167        1290.38
   6.176865        1066.86
   6.189564         922.83
   6.202262         850.09
   6.214960         840.26
   6.227659         897.28
   6.240358        1025.87
   6.253056        1257.86
   6.265755        1589.90
   6.278454        1994.38
   6.291153        2511.26
   6.303852        3173.46
   6.316551        3733.97
   6.329250        4185.65
   6.341950        4462.58
   6.354649        4499.72
   6.367348        4324.61
   6.380048        3913.29
   6.392748        3440.58
   6.405447        2810.12
   6.418147        2246.90
   6.430847        1824.44
   6.443547        1551.54
   6.456247        1394.06
   6.468947        1369.86
   6.481647        1439.16
   6.494347        1583.80
   6.507047        1769.63
   6.519748        1963.60
   6.532448        2095.50
   6.545149        2153.40
   6.557849        2126.06
   6.570550        1991.09
   6.583251        1807.96
   6.595952        1590.04
   6.608653        1365.08
   6.621354        1126.12
   6.634055         942.96
   6.646756         806.38
   6.659457         712.36
   6.672159         640.92
   6.684860         602.05
   6.697562         589.26
   6.710263         602.86
   6.722965         647.43
   6.735667         731.74
   6.748368         854.43
   6.761070        1039.79
   6.773772        1321.49
   6.786474        1719.90
   6.799177        2158.99
   6.811879        2647.44
   6.824581        3136.83
   6.837284        3608.86
   6.849986        3899.97
   6.862689        3984.96
   6.875391        3855.76
   6.888094        3559.45
   6.900797        3130.78
   6.913500        2710.33
   6.926203        2289.87
   6.938906        1951.95
   6.951609        1766.04
   6.964313        1731.28
   6.977016        1829.90
   6.989719        2041.38
   7.002423        2301.17
   7.015127        2527.32
   7.027830        2690.77
   7.040534        2756.58
   7.053238        2694.41
   7.065942        2510.21
   7.078646        2253.08
   7.091350        1905.78
   7.104054        1564.65
   7.116759        1263.54
   7.129463        1045.89
   7.142168         875.63
   7.154872         754.42
   7.167577         685.32
   7.180282         655.64
   7.192986         651.76
   7.205691         682.22
   7.218396         740.51
   7.231101         838.84
   7.243807         985.24
   7.256512        1219.61
   7.269217        1488.90
   7.281923        1800.88
   7.294628        2097.74
   7.307334        2419.60
   7.320040        2637.68
   7.332746        2735.31
   7.345452        2700.27
   7.358158        2536.18
   7.370864        2284.00
   7.383570        2025.70
   7.396276        1785.70
   7.408982        1599.61
   7.421689        1480.62
   7.434395        1477.89
   7.447102        1553.16
   7.459809        1685.22
   7.472516        1847.23
   7.485223        1978.25
   7.497930        2057.74
   7.510637        2063.11
   7.523344        1997.80
   7.536051        1867.66
   7.548759        1699.33
   7.561466        1503.25
   7.574174        1300.56
   7.586881        1135.07
   7.599589        1019.91
   7.612297         949.08
   7.625005         921.96
   7.637713         939.71
   7.650421        1012.58
   7.663129        1150.36
   7.675838        1390.90
   7.688546        1754.31
   7.701254        2220.66
   7.713963        2785.44
   7.726672        3519.83
   7.739381        4272.88
   7.752089        4941.37
   7.764798        5391.25
   7.777508        5614.79
   7.790217        5568.18
   7.802926        5212.45
   7.815635        4693.17
   7.828345        4020.89
   7.841054        3300.50
   7.853764        2728.78
   7.866474        2318.97
   7.879184        2060.89
   7.891894        1953.78
   7.904604        1965.04
   7.917314        2076.35
   7.930024        2231.21
   7.942734        2430.65
   7.955445        2592.57
   7.968155        2706.29
   7.980866        2734.07
   7.993577        2671.11
   8.006288        2527.15
   8.018998        2328.18
   8.031709        2098.06
   8.044421        1844.46
   8.057132        1621.08
   8.069843        1475.20
   8.082555        1411.15
   8.095266        1448.61
   8.107978        1604.78
   8.120689        1857.41
   8.133401        2218.73
   8.146113        2662.25
   8.158825        3207.79
   8.171537        3672.91
   8.184250        4010.78
   8.196962        4188.29
   8.209674        4168.67
   8.222387        3940.55
   8.235099        3580.51
   8.247812        3102.01
   8.260525        2589.90
   8.273238        2127.12
   8.285951        1790.98
   8.298664        1559.45
   8.311377        1408.21
   8.324091        1331.87
   8.336804        1306.34
   8.349518        1299.89
   8.362231        1293.60
   8.374945        1276.84
   8.387659        1242.02
   8.400373        1187.56
   8.413087        1110.67
   8.425801        1025.60
   8.438515         940.34
   8.451230         866.38
   8.463944         795.64
   8.476659         743.48
   8.489374         715.29
   8.502088         712.58
   8.514803         735.56
   8.527518         786.65
   8.540233         853.35
   8.552949         935.18
   8.565664        1022.12
   8.578379        1106.63
   8.591095        1160.04
   8.603811        1183.78
   8.616526        1173.30
   8.629242        1128.77
   8.641958        1071.07
   8.654674        1013.06
   8.667390         966.26
   8.680107         935.37
   8.692823         933.11
   8.705539         949.09
   8.718256         975.63
   8.730973        1000.23
   8.743690        1011.89
   8.756407        1004.53
   8.769124         975.01
   8.781841         929.15
   8.794558         873.44
   8.807275         826.17
   8.819993         793.30
   8.832710         782.43
   8.845428         803.00
   8.858146         860.78
   8.870864         961.83
   8.883582        1150.83
   8.896300        1409.32
   8.909018        1752.05
   8.921736        2156.66
   8.934455        2654.04
   8.947173        3173.00
   8.959892        3623.08
   8.972611        3909.75
   8.985330        4039.45
   8.998049        3951.42
   9.010768        3719.32
   9.023487        3353.58
   9.036206        2931.38
   9.048926        2458.05
   9.061645        2103.36
   9.074365        1840.94
   9.087085        1680.51
   9.099805        1574.50
   9.112525        1515.60
   9.125245        1470.59
   9.137965        1419.46
   9.150686        1351.29
   9.163406        1268.74
   9.176127        1187.68
   9.188847        1111.82
   9.201568        1049.46
   9.214289        1017.41
   9.227010        1029.07
   9.239731        1091.83
   9.252452        1235.35
   9.265174        1456.00
   9.277895        1748.49
   9.290617        2120.32
   9.303339        2563.72
   9.316060        3031.26
   9.328782        3423.33
   9.341504        3684.43
   9.354227        3820.64
   9.366949        3793.57
   9.379671        3645.70
   9.392394        3428.00
   9.405116        3193.36
   9.417839        3003.79
   9.430562        2929.43
   9.443285        2977.63
   9.456008        3111.32
   9.468731        3316.21
   9.481455        3489.11
   9.494178        3594.06
   9.506902        3590.95
   9.519625        3454.34
   9.532349        3217.88
   9.545073        2895.25
   9.557797        2522.32
   9.570521        2098.15
   9.583246        1720.03
   9.595970        1412.71
   9.608695        1153.10
   9.621419         943.09
   9.634144         786.88
   9.646869         682.92
   9.659594         608.40
   9.672319         555.05
   9.685044         514.10
   9.697769         487.11
   9.710495         467.69
   9.723221         452.65
   9.735946         441.43
   9.748672         434.72
   9.761398         431.14
   9.774124         430.44
   9.786850         432.43
   9.799577         437.18
   9.812303         443.77
   9.825030         451.99
   9.837756         460.34
   9.850483         466.70
   9.863210         470.17
   9.875937         470.27
   9.888664         466.21
   9.901391         460.16
   9.914119         452.69
   9.926846         446.66
   9.939574         443.45
   9.952302         446.96
   9.965030         457.93
   9.977758         477.75
   9.990486         507.94
  10.003214         540.37
  10.015943         571.71
  10.028671         598.83
  10.041400         617.43
  10.054129         623.82
  10.066857         617.36
  10.079586         601.38
  10.092316         579.48
  10.105045         557.28
  10.117774         540.69
  10.130504         529.21
  10.143233         523.23
  10.155963         520.46
  10.168693         517.68
  10.181423         513.32
  10.194153         504.98
  10.206883         495.18
  10.219614         485.14
  10.232344         478.68
  10.245075         478.59
  10.257806         488.68
  10.270537         511.51
  10.283268         551.73
  10.295999         613.31
  10.308730         700.47
  10.321462         797.58
  10.334193         903.03
  10.346925        1009.90
